File: Synthesis of barbituric acid doped carbon nitride for efficient solar-driven photocatalytic degradation of aniline/data/CN-BA-XPS/XPS/1#-C1s.txt
321.02	3058.13
320.82	2801.26
320.62	3037.81
320.42	2961.21
320.22	3065.19
320.02	2999.3
319.82	3062.48
319.62	3147.43
319.42	2953.82
319.22	3246.33
319.02	3049.67
318.82	3016.43
318.62	3067.6
318.42	3039.34
318.22	3274.91
318.02	3023.3
317.82	3010.38
317.62	3165.2
317.42	3313.93
317.22	3134.69
317.02	3062.64
316.82	3001.88
316.62	3278.67
316.42	3125.84
316.22	3111.35
316.02	3096.08
315.82	3195.33
315.62	3371.5
315.42	3152.79
315.22	3055.07
315.02	3270.95
314.82	3032.17
314.62	3045.07
314.42	3256.31
314.22	3180.33
314.02	3189.86
313.82	3096.28
313.62	3211.57
313.42	3134.45
313.22	2957.72
313.02	3113.16
312.82	3182.2
312.62	3018.71
312.42	3006.63
312.22	3006.48
312.02	2929.29
311.82	2964.14
311.62	2858.43
311.42	3099.64
311.22	2851.65
311.02	2948.34
310.82	2844.95
310.62	2774.52
310.42	2683.89
310.22	2846.88
310.02	2797.36
309.82	2938.55
309.62	2719.92
309.42	2773.82
309.22	2726.46
309.02	2591.82
308.82	2597.64
308.62	2601.53
308.42	2591.67
308.22	2560.13
308.02	2504.3
307.82	2464.66
307.62	2405.55
307.42	2334.19
307.22	2479.5
307.02	2337.82
306.82	2324.63
306.62	2397.56
306.42	2289.19
306.22	2502.21
306.02	2292.82
305.82	2239.53
305.62	2204.96
305.42	2213.28
305.22	2193.55
305.02	2010.03
304.82	2272.27
304.62	2045.72
304.42	2152.77
304.22	1997.19
304.02	2046.49
303.82	1929.8
303.62	1951.88
303.42	2050.88
303.22	2018.12
303.02	2057.38
302.82	2103.56
302.62	2072.79
302.42	1861.81
302.22	2092.6
302.02	2073.23
301.82	2103.11
301.62	2015.1
301.42	2164.91
301.22	2129.48
301.02	2142.77
300.82	2235.25
300.62	2317.8
300.42	2309.59
300.22	2329.91
300.02	2317.57
299.82	2401.57
299.62	2305.63
299.42	2228.79
299.22	2061.02
299.02	2223.39
298.82	2102.84
298.62	2076.75
298.42	1950.33
298.22	1965.36
298.02	1943.23
297.82	2003.96
297.62	1918.12
297.42	1805.1
297.22	2004.68
297.02	1774.01
296.82	1718.67
296.62	1947.79
296.42	1822.1
296.22	1906.2
296.02	1798.59
295.82	2059.14
295.62	2100.21
295.42	2182.8
295.22	2142.31
295.02	2454
294.82	2549.77
294.62	2717.34
294.42	2779.42
294.22	2459.42
294.02	2649.78
293.82	2587.08
293.62	2776.75
293.42	2388.44
293.22	2280.31
293.02	2239.68
292.82	2040.74
292.62	1774.83
292.42	1538.66
292.22	1422.01
292.02	1349.13
291.82	1337.72
291.62	1303.88
291.42	1407.03
291.22	1377.67
291.02	1300.7
290.82	1252.26
290.62	1306.74
290.42	1603.12
290.22	1819
290.02	2687.77
289.82	3728.52
289.62	5950.84
289.42	9973.42
289.22	15276.6
289.02	22529.7
288.82	28353.1
288.62	32312.6
288.42	32877.4
288.22	28406.3
288.02	20294.1
287.82	13327.1
287.62	8162.34
287.42	4569.12
287.22	3276.21
287.02	2446.75
286.82	2046.87
286.62	2153.72
286.42	2319.47
286.22	2447.71
286.02	2815.34
285.82	3234.85
285.62	3913.56
285.42	4531.82
285.22	4956.54
285.02	4992.25
284.82	4268.15
284.62	3455.77
284.42	2640.21
284.22	1798.72
284.02	1195.09
283.82	881.823
283.62	644.458
283.42	564.716
283.22	465.396
283.02	489.136
282.82	399.31
282.62	378.071
282.42	427.041
282.22	354.632
282.02	341.507
281.82	384.264
281.62	365.186
281.42	396.309
281.22	373.119
281.02	406.052
280.82	369.068
280.62	357.283
280.42	352.661
280.22	450.58
280.02	449.2
279.82	392.657
279.62	443.337
279.42	372.949
279.22	379.292
279.02	414.656
278.82	381.253
278.62	346.048
278.42	342.167
278.22	358.493
278.02	391.687
277.82	423.629
277.62	344.058
277.42	413.305
277.22	248.509
277.02	391.186
276.82	321.859
276.62	379.992
276.42	379.482
276.22	406.453
276.02	380.252