File: Synthesis of barbituric acid doped carbon nitride for efficient solar-driven photocatalytic degradation of aniline/data/CN-BA-XPS/XPS/1#-C1s.dat
B.E.(eV)           Raw Intensity       Peak Sum            Background          Peak 1              Peak 2              Peak 3              difference
 321.02             3058.13             3061.865            3058.13             3058.13             3061.568            3058.427           -3.735107
 320.32             3109.75             3061.531            3057.627            3057.627            3061.218            3057.94             48.21899
 319.62             3147.43             3061.598            3057.513            3057.513            3061.268            3057.844            85.83154
 318.92             3010.65             3061.927            3057.649            3057.649            3061.578            3057.998           -51.27734
 318.22             3274.91             3062.008            3057.521            3057.521            3061.638            3057.891            212.9021
 317.52             2929.76             3063.061            3058.351            3058.351            3062.669            3058.742           -133.3008
 316.82             3001.88             3064.889            3059.938            3059.938            3064.473            3060.354           -63.00879
 316.12             3081.38             3067.124            3061.913            3061.913            3066.681            3062.355            14.25635
 315.42             3152.79             3069.979            3064.488            3064.488            3069.507            3064.959            82.81152
 314.72             3236.91             3073.429            3067.634            3067.634            3072.925            3068.137            163.481
 314.02             3189.86             3078.052            3071.927            3071.927            3077.513            3072.466            111.8081
 313.32             2986.69             3083.046            3076.561            3076.561            3082.468            3077.139           -96.35596
 312.62             3018.71             3087.785            3080.907            3080.907            3087.162            3081.53            -69.07471
 311.92             3165.77             3091.7              3084.394            3084.394            3091.029            3085.065            74.06958
 311.22             2851.65             3095.601            3087.823            3087.823            3094.875            3088.55            -243.9509
 310.52             2799.29             3097.431            3089.135            3089.135            3096.642            3089.923           -298.1406
 309.82             2938.55             3098.112            3089.244            3089.244            3097.253            3090.103           -159.5623
 309.12             2842.18             3096.73             3087.228            3087.228            3095.791            3088.167           -254.55
 308.42             2591.67             3092.543            3082.335            3082.335            3091.512            3083.366           -500.8728
 307.72             2248.2              3084.95             3073.954            3073.954            3083.813            3075.091           -836.75
 307.02             2337.82             3072.421            3060.541            3060.541            3071.161            3061.802           -734.6013
 306.32             2236.55             3055.864            3042.986            3042.986            3054.458            3044.391           -819.3135
 305.62             2204.96             3034.506            3020.498            3020.498            3032.929            3022.074           -829.5459
 304.92             2317                3006.106            2990.808            2990.808            3004.325            2992.589           -689.1057
 304.22             1997.19             2972.351            2955.574            2955.574            2970.324            2957.601           -975.1611
 303.52             2143.67             2931.397            2912.909            2912.909            2929.069            2915.237           -787.7271
 302.82             2103.56             2883.918            2863.434            2863.434            2881.216            2866.136           -780.3577
 302.12             2007.11             2829.081            2806.249            2806.249            2825.909            2809.42            -821.9711
 301.42             2164.91             2767.149            2741.521            2741.521            2763.374            2745.296           -602.2395
 300.72             2308.53             2698.818            2669.815            2669.815            2694.25             2674.383           -390.2881
 300.02             2317.57             2625.079            2591.942            2591.942            2619.444            2597.578           -307.5093
 299.32             2155.79             2545.788            2507.483            2507.483            2538.666            2514.605           -389.998
 298.62             2076.75             2456.502            2411.575            2411.575            2447.229            2420.848           -379.7524
 297.92             1801.01             2356.883            2303.167            2303.167            2344.328            2315.722           -555.873
 297.22             2004.68             2249.208            2182.903            2182.903            2230.948            2201.162           -244.5275
 296.52             1945.53             2142.328            2051.114            2051.114            2107.924            2085.518           -196.7976
 295.82             2059.14             2084.221            1906.587            1906.587            1974.79             2016.018           -25.08105
 295.12             2474.05             2214.021            1753.571            1753.571            1836.96             2130.632            260.0288
 294.42             2779.42             2552.896            1594.477            1594.477            1698.727            2448.646            226.5239
 293.72             2454.36             2610.352            1425.484            1425.484            1559.477            2476.359           -155.9919
 293.02             2239.68             2078.783            1243.435            1243.435            1421.872            1900.346            160.8965
 292.32             1569.47             1527.624            1041.187            1041.187            1290.2              1278.611            41.84631
 291.62             1303.88             1252.132            816.0172            816.0172            1186.683            881.4661            51.74841
 290.92             1384.43             1204.959            572.0956            572.0956            1179.716            597.3384            179.4709
 290.22             1819                1684.456            311.2322            311.2322            1668.962            326.7268            134.5436
 289.52             7595.93             7768.639            65.11548            65.11549            7757.581            76.17368           -172.709
 288.82             28353.1             29260.79            9.877197            9.879368            29252.48            18.18656           -907.6953
 288.12             24232.6             23765.6             242.0198            242.3789            23758.77            248.4837            467.002
 287.42             4569.12             5122.79             343.0383            362.6499            5098.011            348.2057           -553.6699
 286.72             2188.91             1716.56             327.5765            681.2421            1358.672            331.7995            472.3496
 286.02             2815.34             2948.568            309.8938            2415.486            839.4611            313.4082           -133.2275
 285.32             4807.3              4793.63             319.3303            4457.946            652.0448            322.2999            13.66943
 284.62             3455.77             3272.808            356.8547            3042.577            584.544             359.3966            182.9619
 283.92             937.615             1119.056            376.0793            951.5306            541.4047            378.2794           -181.4409
 283.22             465.396             547.0543            379.05              419.7542            504.4275            380.9727           -81.65833
 282.52             390.396             480.8583            379.9196            380.8702            478.2133            381.614            -90.46228
 281.82             384.264             460.5524            379.9367            379.944             459.0406            381.4411           -76.28839
 281.12             346.028             446.4078            380.0442            380.0442            445.0631            381.3889           -100.3798
 280.42             352.661             435.8232            380.2338            380.2338            434.6142            381.4429           -83.16223
 279.72             367.147             427.7601            380.517             380.517             426.6672            381.6099           -60.61307
 279.02             414.656             421.2469            380.6005            380.6005            420.2543            381.5931           -6.590942
 278.32             368.347             415.8959            380.5531            380.5531            414.9903            381.4587           -47.54895
 277.62             344.058             411.363             380.3484            380.3484            410.5334            381.178            -67.30496
 276.92             360.594             407.658             380.2216            380.2216            406.8953            380.9843           -47.064
 276.22             406.453             404.691             380.2467            380.2467            403.9875            380.9502            1.762024
 276.02             380.252             403.9314            380.2522            380.2522            403.2435            380.9401           -23.67938