File: Synthesis of barbituric acid doped carbon nitride for efficient solar-driven photocatalytic degradation of aniline/data/CN-BA-XPS/XPS/1#-N1s.dat
B.E.(eV)           Raw Intensity       Peak Sum            Background          Peak 1              Peak 2              Peak 3              Peak 4              difference
 413.02             6910.71             6929.635            6910.71             6916.537            6917.911            6915.939            6911.377           -18.9248
 412.57             6817.14             6930.968            6910.639            6916.856            6918.357            6916.287            6911.385           -113.8281
 412.12             6660.56             6931.763            6909.865            6916.511            6918.158            6915.984            6910.705           -271.2026
 411.67             6954.11             6937.368            6913.709            6920.831            6922.644            6920.359            6914.662            16.7417
 411.22             6251.75             6944.291            6918.644            6926.294            6928.297            6925.898            6919.733           -692.541
 410.77             6244.3              6955.749            6927.844            6936.084            6938.307            6935.789            6929.102           -711.4492
 410.32             6256.48             6969.84             6939.356            6948.257            6950.733            6948.093            6940.825           -713.3599
 409.87             6319.66             6986.274            6952.821            6962.465            6965.238            6962.476            6954.558           -666.6143
 409.42             6088.36             7002.631            6965.729            6976.212            6979.335            6976.454            6967.815           -914.271
 408.97             6211.98             7021.616            6980.667            6992.106            6995.642            6992.651            6983.219           -809.6362
 408.52             6210.08             7041.599            6995.841            7008.371            7012.401            7009.317            6999.032           -831.519
 408.07             6797.99             7059.405            7007.841            7021.626            7026.251            7023.107            7011.944           -261.415
 407.62             6775.11             7072.873            7014.147            7029.385            7034.735            7031.582            7019.613           -297.7632
 407.17             6914.23             7086.673            7018.841            7035.773            7042.016            7038.939            7026.467           -172.4429
 406.72             7079.04             7101.766            7021.793            7040.719            7048.073            7045.213            7033.139           -22.72559
 406.27             7134.03             7121.481            7023.349            7044.642            7053.401            7050.982            7042.502            12.54883
 405.82             7250.77             7173.873            7021.914            7046.045            7056.607            7055                7081.962            76.89746
 405.37             7850.61             7470.156            7015.245            7042.821            7055.738            7055.557            7361.775            380.4541
 404.92             8066.92             8096.367            7000.084            7031.896            7047.953            7050.245            7966.527           -29.44727
 404.47             8356.21             7910.865            6980.282            7017.381            7037.724            7044.337            7752.27             445.3447
 404.02             7569.26             7359.469            6963.8              7007.614            7033.972            7048.32             7160.962            209.7905
 403.57             6668.05             7254.799            6961.885            7014.407            7049.481            7078.718            6997.849           -586.7495
 403.12             6373.47             7349.42             6975.052            7039.137            7087.354            7157.429            6990.657           -975.9502
 402.67             6543.71             7657.178            6990.943            7070.834            7139.896            7418.507            7000.77            -1113.468
 402.22             8903.18             8810.398            6986.925            7089.199            7195.463            8492.817            6993.693            92.78125
 401.77             12862               11846.25            6920.492            7055.89             7266.411            11359.99            6925.427            1015.753
 401.32             15679.5             15833.24            6783.681            6971.976            7690.276            14734.6             6787.435           -153.7422
 400.87             17156.9             17548.02            6604.424            6920.392            9725.286            14108.24            6607.374           -391.1191
 400.42             20195.2             19593.21            6378.776            7541.053            14625.08            10182.25            6381.154            601.9922
 399.97             26529.2             27291.3             6069.954            12883.85            19264.96            7280.438            6071.911           -762.0977
 399.52             42575.8             42810.04            5555.962            31099.09            16910.71            5910.525            5557.6             -234.2344
 399.07             59776.8             58792.61            4687.368            53117.72            10194.94            4853.305            4688.76             984.1875
 398.62             49938               49434.48            3688.126            47568.77            5442.641            3798.127            3689.323            503.5156
 398.17             22418.5             22873.06            3046.761            22252.7             3585.709            3127.138            3047.801           -454.5605
 397.72             7602.25             7525.142            2827.981            7200.534            3090.38             2889.278            2828.893            77.1084
 397.27             4093.24             3748.876            2773.578            3523.574            2949.841            2821.812            2774.384            344.3638
 396.82             3224.49             3188.139            2755.018            3018.733            2884.79             2793.933            2755.736            36.35132
 396.37             3050.36             3051.227            2747.599            2919.005            2847.135            2779.642            2748.242           -.8669434
 395.92             2909.86             2974.529            2743.154            2868.437            2821.831            2769.988            2743.733           -64.66895
 395.47             2832.33             2923.288            2740.706            2836.262            2804.411            2763.5              2741.231           -90.95776
 395.02             2738.04             2887.446            2739.547            2814.757            2792.157            2759.147            2740.024           -149.4055
 394.57             2616.63             2861.065            2738.732            2799.431            2782.899            2755.763            2739.169           -244.4355
 394.12             2747.99             2840.77             2737.844            2787.839            2775.44             2752.779            2738.245           -92.77954
 393.67             2799                2825.941            2738.105            2779.986            2770.49             2751.307            2738.474           -26.94092
 393.22             2709.2              2813.617            2737.755            2773.341            2765.938            2749.508            2738.096           -104.4172
 392.77             2703.63             2803.647            2737.45             2768.056            2762.195            2747.98             2737.765           -100.0176
 392.32             2651.46             2796.304            2738.021            2764.623            2759.921            2747.509            2738.314           -144.844
 391.87             2858.72             2789.271            2737.555            2760.887            2757.073            2746.149            2737.829            69.44922
 391.42             2686.86             2783.372            2737.166            2757.795            2754.669            2744.985            2737.421           -96.51172
 390.97             2814.78             2780.495            2738.958            2757.327            2754.742            2746.103            2739.197            34.2854
 390.52             2699.74             2776.767            2739.223            2755.683            2753.529            2745.777            2739.447           -77.0271
 390.07             2851.65             2774.69             2740.586            2755.42             2753.612            2746.62             2740.796            76.95947
 389.62             2926.91             2770.962            2739.844            2753.281            2751.754            2745.417            2740.042            155.9475
 389.17             2797.32             2767.756            2739.246            2751.475            2750.178            2744.409            2739.433            29.56372
 389.02             2738.88             2766.593            2738.88             2750.741            2749.512            2743.916            2739.063           -27.71289