File: Synthesis of barbituric acid doped carbon nitride for efficient solar-driven photocatalytic degradation of aniline/data/CN-BA-XPS/XPS/1#-N1s.txt
413.02	6910.71
412.92	6960.27
412.82	6768.97
412.72	6945.6
412.62	6839.85
412.52	6903.84
412.42	6974.12
412.32	7037.76
412.22	7129.45
412.12	6660.56
412.02	6598.35
411.92	6987.48
411.82	6555.24
411.72	6621.1
411.62	6754.44
411.52	6580.28
411.42	6750.38
411.32	6540.73
411.22	6251.75
411.12	6603.46
411.02	6429.46
410.92	6541.49
410.82	6086.3
410.72	6338.41
410.62	6606.96
410.52	6346.88
410.42	6356
410.32	6256.48
410.22	6126.07
410.12	6262.14
410.02	6243.25
409.92	6239.11
409.82	6351.05
409.72	6250.14
409.62	5971.01
409.52	6437.3
409.42	6088.36
409.32	6222.51
409.22	6113.01
409.12	6167.38
409.02	6210.73
408.92	6127.17
408.82	6182.22
408.72	5963.97
408.62	6192.08
408.52	6210.08
408.42	6313.1
408.32	6488.16
408.22	6169.34
408.12	6454.75
408.02	6997.27
407.92	6396.17
407.82	6691.91
407.72	6627.17
407.62	6775.11
407.52	6633.99
407.42	6871.01
407.32	6751.93
407.22	6924.13
407.12	6838.92
407.02	6891.93
406.92	6811.26
406.82	6979.33
406.72	7079.04
406.62	6554.2
406.52	7177.93
406.42	6930.84
406.32	6959.23
406.22	6825.55
406.12	7105.16
406.02	7107.24
405.92	7244.79
405.82	7250.77
405.72	7171.13
405.62	7262.82
405.52	7594.35
405.42	7692.38
405.32	7698.23
405.22	7600.28
405.12	7905.82
405.02	8002.24
404.92	8066.92
404.82	8413.93
404.72	8013.18
404.62	7701.77
404.52	8243.04
404.42	8157.76
404.32	8068.91
404.22	7699.41
404.12	7428.26
404.02	7569.26
403.92	7363.42
403.82	7047.36
403.72	6915.86
403.62	6656.03
403.52	6471.18
403.42	6417.35
403.32	6145.38
403.22	5903.14
403.12	6373.47
403.02	5861.35
402.92	6155.97
402.82	5867.37
402.72	6434.63
402.62	6686.85
402.52	6470.71
402.42	7297.59
402.32	7991.54
402.22	8903.18
402.12	9686.24
402.02	10085.9
401.92	11175.7
401.82	12552.5
401.72	13235.8
401.62	13668
401.52	14572.9
401.42	15070.8
401.32	15679.5
401.22	15880.5
401.12	16288.7
401.02	16839.1
400.92	16942.1
400.82	17310.2
400.72	18189.6
400.62	18911.3
400.52	19343.2
400.42	20195.2
400.32	21141.1
400.22	22985.5
400.12	23911.4
400.02	25302.2
399.92	28346.1
399.82	31566.1
399.72	34135
399.62	38459.3
399.52	42575.8
399.42	47310.8
399.32	52408
399.22	55358.8
399.12	59014
399.02	59900.7
398.92	59326.6
398.82	57728.4
398.72	53860.5
398.62	49938
398.52	43776.5
398.42	37865.9
398.32	30620.4
398.22	25059.3
398.12	20027.7
398.02	15921.7
397.92	12147.8
397.82	9708.72
397.72	7602.25
397.62	6250.4
397.52	5755.93
397.42	4869.14
397.32	4038.74
397.22	4024.22
397.12	3814.89
397.02	3659.5
396.92	3570.51
396.82	3224.49
396.72	3106.53
396.62	3242.5
396.52	3071.65
396.42	2919.42
396.32	3071.15
396.22	3111.17
396.12	2857.53
396.02	2909.6
395.92	2909.86
395.82	3043.66
395.72	2823.69
395.62	2815.77
395.52	2801.13
395.42	2646.48
395.32	2810.01
395.22	2870.38
395.12	2776.13
395.02	2738.04
394.92	2801.56
394.82	2646.01
394.72	2694
394.62	2822.17
394.52	2680.65
394.42	2895.6
394.32	2767.97
394.22	2840.24
394.12	2747.99
394.02	2852.71
393.92	2660.59
393.82	2591.03
393.72	2711.87
393.62	2968.04
393.52	2689.57
393.42	2722.72
393.32	2687.47
393.22	2709.2
393.12	2878.32
393.02	2688.14
392.92	2693.6
392.82	2776.72
392.72	2665.68
392.62	2703.6
392.52	2653.52
392.42	2724.34
392.32	2651.46
392.22	2745.06
392.12	2825.04
392.02	2848.75
391.92	2726.02
391.82	2748.13
391.72	2660.83
391.62	2722
391.52	2797.25
391.42	2686.86
391.32	2755.57
391.22	2591.25
391.12	2612.21
391.02	2734.86
390.92	2659.12
390.82	2627.21
390.72	2699.75
390.62	2852.53
390.52	2699.74
390.42	2682.17
390.32	2612.87
390.22	2679.65
390.12	2597.8
390.02	2749.98
389.92	2881.74
389.82	2936.15
389.72	2697.1
389.62	2926.91
389.52	2805.58
389.42	2853.1
389.32	2561.62
389.22	2680.55
389.12	2774.32
389.02	2738.88