File: Synthesis of barbituric acid doped carbon nitride for efficient solar-driven photocatalytic degradation of aniline/data/CN-BA-XPS/XPS/1#-O1s.txt
546.02	8435.31
545.92	8584.05
545.82	8387.57
545.72	8456.15
545.62	8387.21
545.52	8352.77
545.42	8411.63
545.32	8415.08
545.22	8732.83
545.12	8403.4
545.02	8461.66
544.92	8270.74
544.82	8478.88
544.72	8580.76
544.62	8461.12
544.52	8466.5
544.42	8468.16
544.32	8436.57
544.22	8334.76
544.12	8534.75
544.02	8257.86
543.92	8280.15
543.82	8709.77
543.72	8110.79
543.62	8392.43
543.52	8273.13
543.42	8389.54
543.32	8169.33
543.22	8742.37
543.12	8731.83
543.02	8423.89
542.92	8374.87
542.82	8197.68
542.72	8576.96
542.62	8371.09
542.52	8579.37
542.42	8494.85
542.32	8532.52
542.22	8488.44
542.12	8293.93
542.02	8186.61
541.92	8418.82
541.82	8347.47
541.72	8536.9
541.62	8431.2
541.52	8406.91
541.42	8292.9
541.32	8426.04
541.22	8279.67
541.12	8596.46
541.02	8335.24
540.92	8482.66
540.82	8769.13
540.72	8419.84
540.62	8541.71
540.52	8445.62
540.42	8586.73
540.32	8388.64
540.22	8730.54
540.12	8539.81
540.02	8343.94
539.92	8766.96
539.82	8545.39
539.72	8634.28
539.62	8238.32
539.52	8322.22
539.42	8631.39
539.32	8367.4
539.22	8626.95
539.12	8583.8
539.02	8555.62
538.92	8653.23
538.82	8335.99
538.72	8559.7
538.62	8671.18
538.52	8119.65
538.42	8129.74
538.32	8551.6
538.22	8404.39
538.12	8368.47
538.02	8390.63
537.92	8224.07
537.82	8690.9
537.72	8026.47
537.62	8522.27
537.52	8449.38
537.42	8436.26
537.32	8557.36
537.22	8321.59
537.12	8337.16
537.02	8639.36
536.92	8472.26
536.82	8410.44
536.72	8415.68
536.62	8522.9
536.52	8419.8
536.42	8467.23
536.32	8504.35
536.22	8526.67
536.12	8340.67
536.02	8301.52
535.92	8375.13
535.82	8212.6
535.72	8577
535.62	8774.48
535.52	8772.82
535.42	8636.49
535.32	8317.49
535.22	8431.78
535.12	8623.53
535.02	8824.32
534.92	8464.93
534.82	8852.06
534.72	9017.89
534.62	8875.32
534.52	8572.15
534.42	8955.1
534.32	9106.09
534.22	9356.28
534.12	9195.33
534.02	9444.44
533.92	9516.35
533.82	9769.73
533.72	9985.06
533.62	9803.61
533.52	10478.2
533.42	10758.3
533.32	10471.9
533.22	10658.5
533.12	10896.1
533.02	11152.1
532.92	11330.3
532.82	11886.4
532.72	11724.5
532.62	11988.6
532.52	12199.7
532.42	12354.5
532.32	12061.3
532.22	12406.7
532.12	12518.2
532.02	12105.3
531.92	11946.1
531.82	11520.6
531.72	11297.8
531.62	11237.3
531.52	10356.6
531.42	10431.5
531.32	10386.2
531.22	10130.3
531.12	9912.16
531.02	9430.72
530.92	9497.34
530.82	9398.34
530.72	9309.58
530.62	9079.49
530.52	9152.24
530.42	8885.55
530.32	8825.8
530.22	8823.96
530.12	8681.69
530.02	8302.75
529.92	8623.68
529.82	8375.38
529.72	8502.91
529.62	8946.2
529.52	8452.85
529.42	8642.56
529.32	8220.11
529.22	8167.48
529.12	8459.45
529.02	8451.57
528.92	8338.05
528.82	8133.98
528.72	8419.03
528.62	8365.79
528.52	8389.8
528.42	8476.35
528.32	8324.86
528.22	8334.12
528.12	8213.24
528.02	8437.45
527.92	8225.31
527.82	8300.73
527.72	8150.83
527.62	8366.85
527.52	8270.92
527.42	8386.05
527.32	8423.9
527.22	8621.5
527.12	8378.87
527.02	8469.99
526.92	8332.22
526.82	8630.54
526.72	8362.9
526.62	8531.48
526.52	8301.67
526.42	8308.09
526.32	8306.23
526.22	7948.15
526.12	8162.36
526.02	8316.34
525.92	8069.26
525.82	8569.44
525.72	8464.92
525.62	8437.51
525.52	8538.86
525.42	8186.2
525.32	8499.14
525.22	8202.64
525.12	8258.62
525.02	8586.52
524.92	8652.33
524.82	8388.63
524.72	8315.11
524.62	8417.79
524.52	8490.08
524.42	8275.45
524.32	8438.7
524.22	8039.08
524.12	8289.79
524.02	8243.09
523.92	8281.45
523.82	8420.74
523.72	8573.88
523.62	8365.01
523.52	8380.78
523.42	8205.08
523.32	8479.33
523.22	8521.23
523.12	8390.93
523.02	8506.03