File: Synthesis of barbituric acid doped carbon nitride for efficient solar-driven photocatalytic degradation of aniline/data/CN-BA-XPS/XPS/1#-Valence.txt
41.02	361.621
40.82	357.359
40.62	376.939
40.42	337.447
40.22	386.21
40.02	360.22
39.82	385.042
39.62	347.687
39.42	379.828
39.22	359.656
39.02	355.134
38.82	358.579
38.62	358.143
38.42	386.014
38.22	332.045
38.02	334.866
37.82	331.781
37.62	354.438
37.42	376.871
37.22	367.087
37.02	383.037
36.82	358.115
36.62	371.609
36.42	375.806
36.22	357.635
36.02	385.882
35.82	362.957
35.62	363.253
35.42	326.727
35.22	333.826
35.02	309.424
34.82	389.284
34.62	338.199
34.42	373.145
34.22	367.883
34.02	354.77
33.82	322.973
33.62	344.99
33.42	380.284
33.22	382.389
33.02	350.548
32.82	404.374
32.62	369.284
32.42	400.388
32.22	363.926
32.02	388.015
31.82	404.554
31.62	338.884
31.42	432.417
31.22	368.023
31.02	389
30.82	350.984
30.62	394.118
30.42	409.472
30.22	393.657
30.02	426.611
29.82	486.351
29.62	479.34
29.42	459.32
29.22	491.869
29.02	551.168
28.82	477.999
28.62	503.677
28.42	499.552
28.22	554.25
28.02	532.689
27.82	565.418
27.62	624.022
27.42	593.093
27.22	663.053
27.02	645.478
26.82	602.465
26.62	687.411
26.42	720.672
26.22	705.746
26.02	686.082
25.82	711.248
25.62	731.425
25.42	733.497
25.22	782.773
25.02	777.663
24.82	741.901
24.62	800.296
24.42	741.02
24.22	754.938
24.02	797.503
23.82	812.557
23.62	782.817
23.42	786.242
23.22	829.9
23.02	783.637
22.82	782.657
22.62	747.459
22.42	792.361
22.22	762.853
22.02	751.865
21.82	773.077
21.62	716.271
21.42	788.251
21.22	778.407
21.02	728.195
20.82	682.665
20.62	617.739
20.42	622.189
20.22	554.286
20.02	475.422
19.82	438.703
19.62	408.039
19.42	386.054
19.22	333.173
19.02	338.403
18.82	322.413
18.62	275.55
18.42	252.833
18.22	270.604
18.02	315.958
17.82	306.663
17.62	310.036
17.42	328.035
17.22	367.803
17.02	378.663
16.82	400.472
16.62	396.699
16.42	425.278
16.22	417.767
16.02	491.253
15.82	407.527
15.62	373.457
15.42	378.816
15.22	331.305
15.02	333.189
14.82	287.347
14.62	275.89
14.42	303.397
14.22	314.27
14.02	326.182
13.82	312.853
13.62	342.449
13.42	305.658
13.22	273.786
13.02	275.518
12.82	245.27
12.62	245.254
12.42	275.702
12.22	242.733
12.02	232.013
11.82	230.12
11.62	193.589
11.42	223.645
11.22	187.083
11.02	202.101
10.82	179.452
10.62	207.111
10.42	185.31
10.22	182.717
10.02	197.975
9.82	208.083
9.62	205.334
9.42	177.775
9.22	164.582
9.02	142.301
8.82	140.644
8.62	122.433
8.42	117.359
8.22	106.054
8.02	117.959
7.82	154.63
7.62	170.316
7.42	254.158
7.22	269.36
7.02	381.176
6.82	480.844
6.62	449.828
6.42	469.992
6.22	530.128
6.02	428.007
5.82	370.3
5.62	303.221
5.42	253.573
5.22	231.981
5.02	233.253
4.82	250.288
4.62	291.032
4.42	303.633
4.22	313.285
4.02	271.613
3.82	231.645
3.62	182.381
3.42	161.124
3.22	116.955
3.02	88.2953
2.82	44.3377
2.62	37.1108
2.42	21.6246
2.22	7.61905
2.02	6.71068
1.82	6.33453
1.62	2.13285
1.42	2.13285
1.22	2.42897
1.02	5.57423
0.82	1.33653
0.62	0.37215
0.42	0
0.22	3.57343
0.02	3.20528
-0.18	0
-0.38	0.86435
-0.58	2.94518
-0.78	0
-0.98	0
-1.18	0.94438
-1.38	0
-1.58	2.0048
-1.78	1.70868
-1.98	1.19248
-2.18	0
-2.38	2.72909
-2.58	0
-2.78	0.05602
-2.98	2.80512
-3.18	2.93717
-3.38	1.05642
-3.58	2.38495
-3.78	0.53221
-3.98	3.57343