File: Synthesis of barbituric acid doped carbon nitride for efficient solar-driven photocatalytic degradation of aniline/data/CN-BA-XPS/XPS/1#-Valence.dat
B.E.(eV)           Raw Intensity       Peak Sum            Background          Peak 1              Peak 2              Peak 3              Peak 4              Peak 5              Peak 6              difference
 41.02              361.621             365.7693            361.621             361.6356            361.6601            361.6533            361.6805            361.7091            365.5357           -4.148254
 40.07              356.271             366.1291            361.5232            361.5385            361.5645            361.5576            361.5869            361.6184            365.879            -9.858124
 39.12              380.144             366.3434            361.1999            361.2161            361.2437            361.2366            361.2685            361.3032            366.0748            13.80066
 38.17              342.569             366.9518            361.1716            361.1888            361.218             361.2109            361.2456            361.284             366.6627           -24.38281
 37.22              367.087             368.0329            361.49              361.5081            361.5393            361.532             361.5699            361.6126            367.7207           -.9458923
 36.27              321.533             368.9422            361.4709            361.4902            361.5235            361.5162            361.5577            361.6054            368.604            -47.40924
 35.32              331.501             370.4705            361.8365            361.857             361.8926            361.8853            361.931             361.9846            370.1027           -38.96945
 34.37              369.536             372.3924            362.2164            362.2381            362.2763            362.2691            362.3196            362.3802            371.991            -2.856415
 33.42              380.284             374.8391            362.3957            362.4189            362.4599            362.4529            362.5089            362.5779            374.3991            5.444885
 32.47              394.246             378.2937            362.0306            362.0554            362.0995            362.0928            362.1554            362.2346            377.809             15.95233
 31.52              375.854             384.5038            361.0473            361.0738            361.1215            361.1152            361.1855            361.2771            383.967            -8.64975
 30.57              454.814             397.1345            359.6063            359.6348            359.6865            359.6808            359.7603            359.8672            396.5365            57.6795
 29.62              479.34              420.2046            356.08              356.1106            356.1668            356.162             356.2524            356.3786            419.5338            59.13544
 28.67              484.122             459.9486            349.5388            349.5719            349.6333            349.6296            349.7335            349.8842            459.1904            24.17337
 27.72              503.473             523.2209            340.7657            340.8015            340.8687            340.8667            340.9869            341.1694            522.356            -19.74789
 26.77              676.299             609.0828            328.3843            328.4232            328.4972            328.4975            328.6381            328.8627            608.0858            67.21619
 25.82              711.248             705.9626            310.6963            310.7387            310.8205            310.8238            310.9903            311.2719            704.799             5.2854
 24.87              756.351             793.3729            289.4919            289.5384            289.6292            289.6367            289.8365            290.1975            791.9944           -37.02191
 23.92              764.022             841.2677            266.372             266.423             266.5245            266.5378            266.7813            267.2569            839.6041           -77.24573
 22.97              800.38              821.718             241.2086            241.2649            241.3791            241.4004            241.7026            242.3503            819.6635           -21.33801
 22.02              751.865             734.3707            215.9224            215.9849            216.1142            216.1468            216.5304            217.45              731.7562            17.49432
 21.07              754.31              604.4583            190.1993            190.2691            190.4167            190.4653            190.9655            192.3435            600.9945            149.8517
 20.12              518.543             469.689             169.2289            169.3073            169.4774            169.5492            170.2233            172.4488            464.8273            48.854
 19.17              334.15              359.0374            156.9275            157.0163            157.2143            157.3206            158.2682            162.6904            351.1652           -24.88739
 18.22              270.604             292.4342            149.6356            149.7369            149.9702            150.129             151.5366            171.2541            267.9854           -21.83017
 17.27              314.958             325.2083            141.7797            141.8963            142.1751            142.4171            144.6963            252.4079            210.5143           -10.25031
 16.32              392.537             430.0207            130.4095            130.5453            130.8839            131.2633            136.4723            382.6674            170.2363           -37.4837
 15.37              370.148             347.1281            117.0172            117.1771            117.5967            118.2171            144.305             293.4921            141.4261            23.01996
 14.42              303.397             283.4732            107.8608            108.0521            108.5847            109.6836            219.5705            152.4851            124.4014            19.9238
 13.47              325.986             317.8221            97.85941            98.09215            98.78885            101.6124            291.6962            106.6463            110.2832            8.16391
 12.52              248.143             234.1496            89.44217            89.73149            90.67853            105.2055            202.8839            93.37928            99.48168            13.99344
 11.57              190.66              185.9578            82.84562            83.21492            84.569              144.9244            110.8197            85.35656            91.3013             4.70224
 10.62              207.111             210.728             77.04173            77.52927            79.60451            192.4875            83.20633            78.78717            84.32186           -3.617035
 9.67               193.141             167.2631            71.38677            72.05965            75.57715            151.8306            74.32513            72.66795            77.73656            25.87787
 8.72               128.543             109.3884            67.37984            68.36704            75.70094            91.59944            69.29166            68.35914            72.96933            19.15462
 7.77               135.694             130.5425            65.07277            66.65617            116.6461            70.30901            66.41991            65.84514            70.03009            5.151459
 6.82               480.844             411.1284            55.04715            57.97284            400.0437            57.15749            56.04575            55.67164            59.47273            69.71564
 5.87               364.134             347.6239            36.09384            44.86758            332.2592            37.42643            36.86284            36.60908            40.068              16.51007
 4.92               256.611             197.466             24.67329            154.5941            61.98244            25.60595            25.28331            25.10556            28.26108            59.14497
 3.97               226.643             245.2193            12.21722            233.0131            19.61737            12.90529            12.71274            12.58501            15.47187           -18.57628
 3.02               88.2953             31.95036            4.561638            23.82924            8.462318            5.089512            4.972012            4.878347            7.527116            56.34495
 2.07               10.1641             12.93303            3.046391            6.760228            5.467867            3.463868            3.391764            3.32195             5.759312           -2.768933
 1.12               0                   9.917986            3.025615            4.907548            4.670123            3.363887            3.320258            3.267542            5.516705           -9.917986
 .17                0                   8.476091            3.113836            4.244858            4.301888            3.393403            3.368136            3.327924            5.409063           -8.476091
-.78                0                   7.620998            3.201805            3.954411            4.099583            3.436677            3.423501            3.392592            5.323261           -7.620998
-1.73               2.60904             7.09448             3.323588            3.859766            4.025577            3.523659            3.518561            3.494677            5.290181           -4.485439
-2.68               0                   6.718344            3.425911            3.827008            3.989703            3.598363            3.59871             3.580199            5.253916           -6.718344
-3.63               0                   6.455055            3.533449            3.844679            3.996111            3.683619            3.687648            3.673293            5.236948           -6.455055
-3.98               3.57343             6.378154            3.573425            3.859025            4.005588            3.716462            3.721522            3.708455            5.234229           -2.804724