File: Synthesis of barbituric acid doped carbon nitride for efficient solar-driven photocatalytic degradation of aniline/data/CN-BA-XPS/XPS/6#-C1s.dat
B.E.(eV)           Raw Intensity       Peak Sum            Background          Peak 1              Peak 2              Peak 3              difference
 321.02             3066.53             3070.046            3066.53             3066.968            3069.345            3066.794           -3.516113
 320.32             3131.34             3071.525            3067.853            3068.308            3070.792            3068.13             59.81519
 319.62             3099.49             3072.853            3069.015            3069.489            3072.087            3069.307            26.63672
 318.92             3171.99             3076.586            3072.569            3073.063            3075.783            3072.877            95.4043
 318.22             3327.91             3081.511            3077.304            3077.819            3080.671            3077.63             246.3984
 317.52             3331.22             3090.334            3085.921            3086.459            3089.452            3086.266            240.886
 316.82             3149.51             3100.597            3095.964            3096.525            3099.67             3096.33             48.91333
 316.12             3288.72             3109.803            3104.932            3105.519            3108.827            3105.321            178.917
 315.42             3133.96             3123.517            3118.39             3119.004            3122.489            3118.804            10.44312
 314.72             3332.28             3139.727            3134.323            3134.966            3138.642            3134.764            192.5535
 314.02             3364.29             3157.811            3152.107            3152.782            3156.665            3152.578            206.4795
 313.32             3319.56             3179.688            3173.658            3174.367            3178.475            3174.162            139.8721
 312.62             3249.71             3202.469            3196.084            3196.83             3201.183            3196.626            47.24048
 311.92             2957.17             3226.18             3219.407            3220.192            3224.812            3219.99            -269.01
 311.22             3087.49             3250.104            3242.906            3243.733            3248.647            3243.535           -162.6138
 310.52             2883.6              3273.248            3265.584            3266.457            3271.693            3266.265           -389.6477
 309.82             2935.95             3296.339            3288.162            3289.086            3294.676            3288.902           -360.3892
 309.12             2788.93             3317.223            3308.479            3309.457            3315.438            3309.285           -528.2927
 308.42             2786.82             3336.048            3326.675            3327.712            3334.128            3327.557           -549.2278
 307.72             2648                3352.617            3342.544            3343.647            3350.545            3343.513           -704.6172
 307.02             2403.19             3363.573            3352.717            3353.891            3361.329            3353.787           -960.3831
 306.32             2478.01             3369.634            3357.899            3359.152            3367.194            3359.087           -891.624
 305.62             2408.04             3370.787            3358.061            3359.4              3368.123            3359.386           -962.7473
 304.92             2226.62             3364.366            3350.514            3351.949            3361.443            3352.002           -1137.746
 304.22             2185.37             3351.026            3335.888            3337.43             3347.801            3337.571           -1165.656
 303.52             2242.02             3328.565            3311.95             3313.611            3324.985            3313.868           -1086.545
 302.82             2017.19             3295.975            3277.649            3279.444            3291.973            3279.856           -1278.785
 302.12             2212.73             3255.066            3234.741            3236.686            3250.556            3237.306           -1042.336
 301.42             2152.38             3203.954            3181.272            3183.387            3198.821            3184.29            -1051.574
 300.72             2210.18             3143.677            3118.182            3120.49             3137.768            3121.783           -933.4976
 300.02             2333.77             3075.303            3046.406            3048.935            3068.405            3050.776           -741.5334
 299.32             2294.21             2998.455            2965.377            2968.16             2990.262            2970.787           -704.2454
 298.62             2254.19             2906.596            2868.276            2871.353            2896.654            2875.141           -652.4065
 297.92             1947.92             2796.654            2751.587            2755.008            2784.248            2760.571           -848.7335
 297.22             1875.54             2670.017            2615.907            2619.732            2653.897            2628.201           -794.4771
 296.52             1903.07             2530.522            2462.576            2466.882            2507.311            2481.481           -627.452
 295.82             2013.56             2390.476            2289.884            2294.767            2343.326            2332.151           -376.9158
 295.12             2261.44             2309.814            2099.268            2104.852            2164.223            2239.275           -48.37378
 294.42             2513.43             2391.777            1895.16             1901.607            1975.771            2304.719            121.6533
 293.72             2642.19             2563.455            1677.45             1684.976            1780.107            2453.272            78.73511
 293.02             2328.4              2414.993            1438.819            1447.718            1573.896            2271.016           -86.59277
 292.32             1991.77             1856.629            1165.932            1176.617            1351.412            1660.464            135.1409
 291.62             1358.46             1319.879            853.3036            866.3682            1123.162            1036.956            38.58105
 290.92             1388.92             999.4355            501.2997            517.6315            928.6505            555.753             389.4846
 290.22             1486.26             1048.893            116.2969            137.2833            1006.208            137.9956            437.3669
 289.52             4687.4              4707.751           -278.5674           -250.6356            4666.478           -265.2249           -20.35156
 288.82             22336.9             22992.15           -467.6172           -428.6855            22943.62           -458.0156           -655.248
 288.12             31771.6             30305.44           -84.93555           -27.09478            30240.32           -77.66021            1466.164
 287.42             8738.79             9652.023            238.6982            337.3527            9547.672            244.3953           -913.2334
 286.72             2878.87             2005.355            260.4651            582.4529            1678.789            265.043             873.5154
 286.02             2497.3              2511.248            236.0081            1990.776            752.7236            239.765            -13.948
 285.32             4835.17             5230.808            246.3096            4916.07             557.9095            249.4469           -395.6377
 284.62             5130.48             4358.944            326.5601            4147.296            535.5497            329.2187            771.5356
 283.92             1709.91             1593.38             385.5835            1441.542            535.1401            387.8648            116.53
 283.22             528.541             707.5109            397.1838            593.3509            509.3652            399.1624           -178.9698
 282.52             394.338             569.4104            399.9026            480.4786            487.1021            401.6349           -175.0724
 281.82             399.49              523.2318            401.5185            452.0056            471.2156            403.0475           -123.7418
 281.12             315.176             495.319             402.2103            436.9919            459.1779            403.5699           -180.143
 280.42             306.112             476.9389            402.9316            428.2971            450.3567            404.1483           -170.8269
 279.72             398.84              463.7788            403.3               422.5942            443.3894            404.3951           -64.93884
 279.02             372.789             454.5167            404.0361            419.1952            438.3666            405.0271           -81.72766
 278.32             358.303             447.1133            404.2654            416.4849            433.9929            405.1664           -88.81024
 277.62             384.874             441.0512            404.1817            414.2381            430.1722            405.0044           -56.17719
 276.92             324.83              435.2018            403.1127            411.5321            426.0284            403.8668           -110.3719
 276.22             370.308             430.1632            401.9632            409.1142            422.3185            402.6569           -59.85522
 276.02             401.701             428.9223            401.7012            408.5421            421.4035            402.379            -27.22128