File: Synthesis of barbituric acid doped carbon nitride for efficient solar-driven photocatalytic degradation of aniline/data/CN-BA-XPS/XPS/6#-C1s.txt
321.02	3066.53
320.82	3372.88
320.62	3089.32
320.42	3069.5
320.22	3060.19
320.02	3202.79
319.82	3068.39
319.62	3099.49
319.42	3169.66
319.22	3214.83
319.02	3172.11
318.82	3184.86
318.62	3296.42
318.42	3138.78
318.22	3327.91
318.02	3263.28
317.82	3304.07
317.62	3421.92
317.42	3252.81
317.22	3191.14
317.02	3088.38
316.82	3149.51
316.62	3217.17
316.42	3201.6
316.22	3214.39
316.02	3227.87
315.82	3327.93
315.62	3277.37
315.42	3133.96
315.22	3539.98
315.02	3170.11
314.82	3213.59
314.62	3253.57
314.42	3293.2
314.22	3247.2
314.02	3364.29
313.82	3251.05
313.62	3236
313.42	3144.89
313.22	3220.57
313.02	3226.67
312.82	3162.52
312.62	3249.71
312.42	3340.34
312.22	3193
312.02	3077.25
311.82	3305.01
311.62	3021.23
311.42	3084.43
311.22	3087.49
311.02	2905.37
310.82	2854.11
310.62	2918.65
310.42	2929.91
310.22	3068.61
310.02	2955.99
309.82	2935.95
309.62	2836.88
309.42	2864.98
309.22	2824.38
309.02	2719.89
308.82	2811.94
308.62	2766.97
308.42	2786.82
308.22	2665.74
308.02	2609.3
307.82	2661.73
307.62	2483.54
307.42	2588.62
307.22	2530.82
307.02	2403.19
306.82	2372.07
306.62	2425.77
306.42	2689.6
306.22	2439.47
306.02	2357.09
305.82	2409.08
305.62	2408.04
305.42	2343.56
305.22	2374.68
305.02	2158.32
304.82	2179.93
304.62	2175.42
304.42	2340.7
304.22	2185.37
304.02	2195.87
303.82	2243.26
303.62	2141.87
303.42	2031.36
303.22	2097.55
303.02	2121.78
302.82	2017.19
302.62	2114.78
302.42	2045.84
302.22	2205.9
302.02	2119.35
301.82	2078.32
301.62	2307.76
301.42	2152.38
301.22	2239.02
301.02	2361.52
300.82	2361.69
300.62	2146.4
300.42	2339.72
300.22	2383.9
300.02	2333.77
299.82	2506.37
299.62	2323.36
299.42	2467.43
299.22	2351.52
299.02	2349.14
298.82	2171.51
298.62	2254.19
298.42	2014.51
298.22	1996.82
298.02	2046.14
297.82	1989.2
297.62	1887.05
297.42	2109.99
297.22	1875.54
297.02	1918.23
296.82	1957.6
296.62	2056.47
296.42	1888.44
296.22	2016.19
296.02	2136.58
295.82	2013.56
295.62	2138.04
295.42	2068.11
295.22	2322.78
295.02	2299.79
294.82	2333.68
294.62	2541.81
294.42	2513.43
294.22	2734.72
294.02	2569.75
293.82	2794.58
293.62	2518.56
293.42	2499.9
293.22	2607.7
293.02	2328.4
292.82	2415.24
292.62	1973
292.42	1822.97
292.22	1653.9
292.02	1608.16
291.82	1407.1
291.62	1358.46
291.42	1360.78
291.22	1327.23
291.02	1266.52
290.82	1336.93
290.62	1276.75
290.42	1433.91
290.22	1486.26
290.02	1832.85
289.82	2569.71
289.62	3628.28
289.42	6210.77
289.22	9781.94
289.02	15617.9
288.82	22336.9
288.62	29511.6
288.42	33724.5
288.22	33267.8
288.02	28710.7
287.82	21319.2
287.62	13973.7
287.42	8738.79
287.22	5342.68
287.02	3923.31
286.82	3387.29
286.62	2800.76
286.42	2468.38
286.22	2532.57
286.02	2497.3
285.82	3081.48
285.62	3793.09
285.42	4549.05
285.22	5205.71
285.02	5643.31
284.82	5551.96
284.62	5130.48
284.42	3777.01
284.22	2710.96
284.02	1876.11
283.82	1101.08
283.62	867.967
283.42	629.962
283.22	528.541
283.02	464.226
282.82	432.503
282.62	377.851
282.42	411.114
282.22	441.757
282.02	320.618
281.82	399.49
281.62	339.206
281.42	309.174
281.22	348.269
281.02	291.447
280.82	431.303
280.62	361.134
280.42	306.112
280.22	362.305
280.02	376.12
279.82	373.95
279.62	422.149
279.42	259.004
279.22	336.104
279.02	372.789
278.82	357.323
278.62	286.645
278.42	380.932
278.22	417.487
278.02	281.423
277.82	310.654
277.62	384.874
277.42	364.036
277.22	346.859
277.02	322.399
276.82	347.349
276.62	341.397
276.42	365.806
276.22	370.308
276.02	401.701