File: Synthesis of barbituric acid doped carbon nitride for efficient solar-driven photocatalytic degradation of aniline/data/CN-BA-XPS/XPS/6#-N1s.txt
413.02	7258.27
412.92	7078.64
412.82	7197.9
412.72	6807.35
412.62	7417.4
412.52	7085
412.42	6950.96
412.32	7101.65
412.22	7187.25
412.12	7153.38
412.02	6969.11
411.92	7080.88
411.82	7155.74
411.72	7136.43
411.62	7000.17
411.52	6921.9
411.42	7021.29
411.32	6798.13
411.22	6951.57
411.12	6608.88
411.02	6715.11
410.92	6768.36
410.82	6637.56
410.72	6515.49
410.62	6457.42
410.52	6670.95
410.42	6214.42
410.32	6471.27
410.22	6647.12
410.12	6673.12
410.02	6491.66
409.92	6409.55
409.82	6354.7
409.72	6446.92
409.62	6510.3
409.52	6488.52
409.42	6308.28
409.32	6396.21
409.22	6304.98
409.12	6293.66
409.02	6206.71
408.92	6303.9
408.82	6158.13
408.72	6375.9
408.62	6459.31
408.52	6252.22
408.42	6311.46
408.32	6194.93
408.22	6468.32
408.12	6524
408.02	6867.4
407.92	6778.03
407.82	6919.17
407.72	6846.64
407.62	6678.52
407.52	6692.47
407.42	6758.01
407.32	6777.47
407.22	6977.51
407.12	7011.79
407.02	7038.92
406.92	6844.17
406.82	6912.83
406.72	6965.1
406.62	7002.83
406.52	6990.02
406.42	7151.31
406.32	6939.63
406.22	7300.61
406.12	7053.41
406.02	7148.31
405.92	7093.81
405.82	7364.47
405.72	7380.18
405.62	7477.51
405.52	7552.3
405.42	7521.81
405.32	7685.98
405.22	7870.13
405.12	7960.17
405.02	7885.07
404.92	8172.57
404.82	8082.71
404.72	8102.68
404.62	7833.47
404.52	8179.62
404.42	8302.8
404.32	8487.04
404.22	8082.76
404.12	8284.27
404.02	7730.95
403.92	7539.26
403.82	7697.85
403.72	7343.4
403.62	7384.26
403.52	7293.94
403.42	6880.7
403.32	6710.29
403.22	6344.09
403.12	6256.51
403.02	6357.14
402.92	6242.02
402.82	6021.49
402.72	6011.61
402.62	6093.04
402.52	6432.23
402.42	6439.11
402.32	6936.83
402.22	7266.54
402.12	8065.57
402.02	8993.92
401.92	9571.41
401.82	11158.7
401.72	11591.7
401.62	12451.6
401.52	14021.5
401.42	14587.2
401.32	15112.4
401.22	15699.2
401.12	15954.6
401.02	16277.3
400.92	16792.2
400.82	17231.2
400.72	17685.6
400.62	18607
400.52	18687.8
400.42	19209.2
400.32	20182.9
400.22	21219
400.12	21917.9
400.02	23637
399.92	24861.1
399.82	26601.3
399.72	29398.4
399.62	31660
399.52	36049.7
399.42	39388.3
399.32	44281.6
399.22	50698.2
399.12	54905.7
399.02	58302.6
398.92	61336.6
398.82	63264.7
398.72	61545.4
398.62	59230.9
398.52	55638.7
398.42	50369.8
398.32	43373.9
398.22	37045.4
398.12	30497.4
398.02	24661
397.92	18884.9
397.82	14361.2
397.72	11488.4
397.62	9237.51
397.52	7596.23
397.42	6128.53
397.32	4961.34
397.22	4712.88
397.12	4232.83
397.02	3922.28
396.92	3780.82
396.82	3675.84
396.72	3474.69
396.62	3406.44
396.52	3231.99
396.42	3195.36
396.32	3160.73
396.22	3225.26
396.12	2924.15
396.02	3071.63
395.92	2931.64
395.82	2974.95
395.72	2992.26
395.62	2921.04
395.52	2962.46
395.42	2864.76
395.32	3014.84
395.22	2967.74
395.12	3077.86
395.02	3071.96
394.92	2824.51
394.82	2847.12
394.72	2935.63
394.62	2782.26
394.52	2794.71
394.42	2867.57
394.32	2982.95
394.22	2903.74
394.12	2981.49
394.02	2872.85
393.92	2851.21
393.82	2901.34
393.72	3020.39
393.62	2772.68
393.52	2823.73
393.42	2762.92
393.32	2856.84
393.22	2921.7
393.12	2757.24
393.02	2928.56
392.92	2774.13
392.82	2653.81
392.72	2710.07
392.62	2898.18
392.52	2934.02
392.42	2891.12
392.32	2703.56
392.22	2735.03
392.12	2843.61
392.02	2781.29
391.92	2902.84
391.82	2851.15
391.72	2579.3
391.62	2801.1
391.52	2729.94
391.42	3056.27
391.32	2692.55
391.22	2815.27
391.12	2741.18
391.02	2922.05
390.92	2956.75
390.82	2783.35
390.72	2861.09
390.62	2837.22
390.52	2785.95
390.42	2818.57
390.32	2777.93
390.22	2835.75
390.12	2823.26
390.02	2772.8
389.92	2716.13
389.82	2766.76
389.72	2795.44
389.62	2918.39
389.52	2721.68
389.42	2816.44
389.32	2666.08
389.22	2841.51
389.12	2667.06
389.02	3043.99