File: Synthesis of barbituric acid doped carbon nitride for efficient solar-driven photocatalytic degradation of aniline/data/CN-BA-XPS/XPS/6#-N1s.dat
B.E.(eV)           Raw Intensity       Peak Sum            Background          Peak 1              Peak 2              Peak 3              Peak 4              difference
 413.02             7258.27             7286.565            7258.27             7277.755            7264.183            7260.974            7258.464           -28.29541
 412.57             7331.22             7291.814            7261.564            7282.338            7267.905            7264.484            7261.781            39.40625
 412.12             7153.38             7296.12             7263.707            7285.9              7270.522            7266.869            7263.95            -142.7402
 411.67             7002.34             7301.649            7266.829            7290.593            7274.174            7270.266            7267.103           -299.3091
 411.22             6951.57             7311.519            7274.011            7299.519            7281.951            7277.759            7274.322           -359.9492
 410.77             6566.08             7324.06             7283.537            7310.988            7292.146            7287.642            7283.895           -757.98
 410.32             6471.27             7343.299            7299.378            7329.002            7308.746            7303.892            7299.793           -872.0288
 409.87             6380.79             7362.807            7315.036            7347.101            7325.266            7320.024            7315.523           -982.0166
 409.42             6308.28             7384.143            7331.983            7366.805            7343.201            7337.524            7332.563           -1075.863
 408.97             6211.5              7408.922            7351.727            7389.675            7364.082            7357.917            7352.429           -1197.422
 408.52             6252.22             7435.528            7372.511            7414.026            7386.184            7379.472            7373.378           -1183.308
 408.07             6543.25             7462.847            7393.041            7438.65             7408.256            7400.925            7394.139           -919.5972
 407.62             6678.52             7482.995            7405.186            7455.525            7422.217            7414.19             7406.619           -804.4751
 407.17             6912.46             7505.272            7417.904            7473.748            7437.098            7428.285            7419.854           -592.8125
 406.72             6965.1              7526.277            7427.282            7489.583            7449.076            7439.379            7430.084           -561.1768
 406.27             7241.8              7548.377            7434.842            7504.788            7459.801            7449.118            7439.197           -306.5771
 405.82             7364.47             7573.696            7441.016            7520.098            7469.879            7458.114            7448.652           -209.2256
 405.37             7329.07             7606.599            7441.096            7531.226            7474.853            7461.94             7461.868           -277.5288
 404.92             8172.57             7823.494            7434.37             7538.025            7474.371            7460.33             7653.876            349.0762
 404.47             8124.97             8258.1              7421.213            7541.673            7469.354            7454.416            8056.295           -133.1294
 404.02             7730.95             7810.285            7405.382            7547.072            7464.403            7449.302            7565.655           -79.33447
 403.57             7139.41             7722.035            7401.691            7570.724            7475.697            7462.393            7418.294           -582.625
 403.12             6256.51             7810.245            7413.602            7618.674            7509.029            7502.758            7420.588           -1553.735
 402.67             6157.39             7974.045            7437.676            7691.564            7565.178            7588.585            7441.745           -1816.655
 402.22             7266.54             8433.986            7455.396            7777.65             7634.598            7929.879            7458.049           -1167.446
 401.77             11141.5             10511.6             7425.367            7847.381            7713.976            9799.111            7427.229            629.9043
 401.32             15112.4             15095.89            7314.162            7889.582            8056.955            13776.3             7315.54             16.5127
 400.87             17130.8             17110.53            7143.702            7977.227            9985.347            13434.3             7144.762            20.27148
 400.42             19209.2             18805.46            6929.161            8393.547            15124.72            9144.676            6930.002            403.7422
 399.97             24342               24682.52            6648.17             11289.61            19600.47            7088.092            6648.853           -340.5176
 399.52             36049.7             34880.86            6221.219            24958.74            15996.84            6367.158            6221.784            1168.836
 399.07             57069               56234.88            5459.318            52281.56            9324.793            5546.676            5459.794            834.125
 398.62             59230.9             60392.73            4370.939            59306.33            5397.24             4430.631            4371.346           -1161.828
 398.17             33501.8             32414.29            3486.34             32026.97            3830.015            3529.632            3486.691            1087.512
 397.72             11488.4             11378.06            3116.332            11147.37            3313.925            3149.121            3116.638            110.3447
 397.27             4876.76             5271.208            3024.212            5107.337            3162.14             3049.885            3024.481           -394.4478
 396.82             3675.84             4114.382            3001.484            3991.351            3103.64             3022.121            3001.723           -438.5417
 396.37             3281.06             3745.063            2993.861            3649.312            3072.455            3010.805            2994.074           -464.0024
 395.92             2931.64             3539.943            2991.576            3463.311            3053.858            3005.734            2991.767           -608.3027
 395.47             2852.51             3410.504            2992.544            3347.786            3043.084            3004.549            2992.717           -557.9939
 395.02             3071.96             3322.561            2993.438            3270.281            3035.254            3003.746            2993.595           -250.6011
 394.57             2782.23             3260.526            2994.612            3216.276            3029.773            3003.557            2994.754           -478.2957
 394.12             2981.49             3215.992            2996.651            3178.054            3026.623            3004.487            2996.781           -234.5024
 393.67             3033.1              3182.596            2998.554            3149.706            3024.403            3005.474            2998.674           -149.4958
 393.22             2921.7              3159.14             3002.495            3130.353            3025.015            3008.652            3002.606           -237.4397
 392.77             2550.93             3141.343            3006.39             3115.935            3026.183            3011.902            3006.492           -590.4126
 392.32             2703.56             3128.641            3011.155            3106.05             3028.688            3016.119            3011.25            -425.0811
 391.87             2850.13             3118.927            3015.718            3098.709            3031.355            3020.211            3015.806           -268.7976
 391.42             3056.27             3111.716            3020.324            3093.515            3034.357            3024.411            3020.406           -55.44629
 390.97             2785.08             3105.525            3024.027            3089.052            3036.69             3027.76             3024.104           -320.4448
 390.52             2785.95             3100.294            3027.163            3085.315            3038.647            3030.586            3027.235           -314.344
 390.07             2742.06             3097.791            3031.798            3084.111            3042.26             3034.948            3031.866           -355.7305
 389.62             2918.39             3097.317            3037.465            3084.774            3047.036            3040.374            3037.529           -178.9275
 389.17             2787.62             3096.803            3042.271            3085.26             3051.059            3044.964            3042.331           -309.1826
 389.02             3043.99             3096.906            3043.99             3085.671            3052.539            3046.617            3044.049           -52.91577