File: Synthesis of barbituric acid doped carbon nitride for efficient solar-driven photocatalytic degradation of aniline/data/CN-BA-XPS/XPS/6#-O1s.dat
B.E.(eV)           Raw Intensity       Peak Sum            Background          Peak 1              difference
 546.02             8610.12             8615.083            8610.12             8615.083           -4.962891
 545.72             8524.71             8615.228            8610.043            8615.228           -90.51758
 545.42             8665.7              8615.447            8610.024            8615.447            50.25293
 545.12             8565.31             8615.595            8609.918            8615.595           -50.28516
 544.82             8916.92             8615.797            8609.847            8615.797            301.123
 544.52             8772.51             8616.016            8609.772            8616.016            156.4941
 544.22             8479.38             8616.171            8609.613            8616.171           -136.791
 543.92             8700.96             8616.427            8609.53             8616.427            84.5332
 543.62             8410.26             8616.928            8609.665            8616.928           -206.668
 543.32             8414.93             8617.321            8609.662            8617.321           -202.3916
 543.02             8713.22             8617.853            8609.765            8617.853            95.36719
 542.72             8476.08             8618.423            8609.868            8618.423           -142.3428
 542.42             8501.24             8618.986            8609.925            8618.986           -117.7461
 542.12             8503.72             8619.486            8609.871            8619.486           -115.7666
 541.82             8708.67             8620.131            8609.909            8620.131            88.53906
 541.52             8882.52             8620.713            8609.827            8620.713            261.8066
 541.22             8788.71             8621.347            8609.729            8621.347            167.3633
 540.92             8789.68             8622.27             8609.845            8622.27             167.4102
 540.62             8667.11             8623.195            8609.877            8623.195            43.91504
 540.32             8500.96             8624.086            8609.775            8624.086           -123.126
 540.02             8487.03             8625.033            8609.615            8625.033           -138.0029
 539.72             8631.27             8626.243            8609.585            8626.243            5.026367
 539.42             8733.11             8627.516            8609.463            8627.516            105.5947
 539.12             8531.69             8629.071            8609.443            8629.071           -97.38086
 538.82             8681.08             8630.88             8609.464            8630.88             50.2002
 538.52             8226.62             8632.742            8609.284            8632.742           -406.1221
 538.22             8716.49             8635.064            8609.262            8635.064            81.42578
 537.92             8475.67             8637.604            8609.094            8637.604           -161.9346
 537.62             8426.93             8640.822            8609.159            8640.822           -213.8926
 537.32             8458.87             8644.522            8609.161            8644.522           -185.6523
 537.02             8300.81             8649.063            8609.319            8649.063           -348.2539
 536.72             8502.7              8654.288            8609.267            8654.288           -151.5879
 536.42             8395.93             8660.848            8609.293            8660.848           -264.918
 536.12             8534.44             8669.39             8609.313            8669.39            -134.9492
 535.82             8842.85             8681.48             8609.27             8681.48             161.3691
 535.52             8661.29             8700.754            8609.209            8700.754           -39.46387
 535.22             8456.09             8734.724            8609.214            8734.724           -278.6338
 534.92             8875.32             8797.023            8609.107            8797.023            78.29688
 534.62             8762.31             8910.109            8608.895            8910.109           -147.7998
 534.32             8962.53             9104.535            8608.521            9104.535           -142.0049
 534.02             9441.65             9412.741            8607.896            9412.741            28.90918
 533.72             10100               9855.343            8606.759            9855.343            244.6572
 533.42             10408               10422.82            8605.271            10422.82           -14.81641
 533.12             10641.3             11059.39            8603.29             11059.39           -418.0869
 532.82             11454.6             11658.09            8600.805            11658.09           -203.4912
 532.52             12034.3             12073.9             8597.799            12073.9            -39.60254
 532.22             12126.9             12172.84            8594.558            12172.84           -45.93652
 531.92             12023.4             11916.84            8591.131            11916.84            106.5566
 531.62             11976.4             11396.47            8587.957            11396.47            579.9307
 531.32             10600.4             10760.26            8585.414            10760.26           -159.8584
 531.02             10279.5             10140.22            8583.771            10140.22            139.2842
 530.72             9271.58             9620.644            8582.479            9620.644           -349.0635
 530.42             9303.46             9235.957            8581.598            9235.957            67.50293
 530.12             8766.5              8980.053            8581.161            8980.053           -213.5527
 529.82             8710.97             8824.74             8580.995            8824.74            -113.7705
 529.52             8714.7              8736.875            8580.893            8736.875           -22.1748
 529.22             9005.99             8689                8580.809            8689                316.9902
 528.92             8498.77             8662.442            8580.571            8662.442           -163.6729
 528.62             8565.77             8646.992            8580.683            8646.992           -81.22266
 528.32             8412.89             8636.676            8580.634            8636.676           -223.7861
 528.02             8477.58             8629.175            8580.657            8629.175           -151.5947
 527.72             8800.66             8623.338            8580.746            8623.338            177.3223
 527.42             8538.3              8618.416            8580.679            8618.416           -80.11621
 527.12             8604.4              8614.335            8580.661            8614.335           -9.93457
 526.82             8327.4              8611.007            8580.778            8611.007           -283.6064
 526.52             8873.53             8608.084            8580.804            8608.084            265.4463
 526.22             8598.59             8605.489            8580.75             8605.489           -6.899414
 525.92             8761.19             8603.238            8580.704            8603.238            157.9521
 525.62             8498.89             8601.257            8580.648            8601.257           -102.3672
 525.32             8485.68             8599.676            8580.759            8599.676           -113.9961
 525.02             8559.98             8598.181            8580.757            8598.181           -38.2002
 524.72             8629.61             8596.78             8580.681            8596.78             32.83008
 524.42             8443.29             8595.71             8580.79             8595.71            -152.4199
 524.12             8733.4              8594.735            8580.87             8594.735            138.665
 523.82             8655.07             8593.85             8580.933            8593.85             61.2207
 523.52             8591.19             8592.936            8580.873            8592.936           -1.745117
 523.22             8365.74             8592.165            8580.875            8592.165           -226.4248
 523.02             8580.95             8591.766            8580.95             8591.766           -10.81543