File: Synthesis of barbituric acid doped carbon nitride for efficient solar-driven photocatalytic degradation of aniline/data/CN-BA-XPS/XPS/6#-O1s.txt
546.02	8610.12
545.92	8678.14
545.82	8671.74
545.72	8524.71
545.62	8843.84
545.52	8644.61
545.42	8665.7
545.32	8826.66
545.22	8431.58
545.12	8565.31
545.02	9031.41
544.92	8630.62
544.82	8916.92
544.72	8476.33
544.62	8659.83
544.52	8772.51
544.42	8623.64
544.32	8718.63
544.22	8479.38
544.12	8847.19
544.02	8723.27
543.92	8700.96
543.82	8570.17
543.72	8324.54
543.62	8410.26
543.52	8520.29
543.42	8560.88
543.32	8414.93
543.22	8517.58
543.12	8487.09
543.02	8713.22
542.92	8355.82
542.82	8735.92
542.72	8476.08
542.62	8546.85
542.52	8602.47
542.42	8501.24
542.32	8527.34
542.22	8657.29
542.12	8503.72
542.02	8763.39
541.92	8625.88
541.82	8708.67
541.72	8607.64
541.62	8655.01
541.52	8882.52
541.42	8558.15
541.32	8778.03
541.22	8788.71
541.12	8469.19
541.02	8334.31
540.92	8789.68
540.82	8435.6
540.72	8445
540.62	8667.11
540.52	8428.42
540.42	8809.04
540.32	8500.96
540.22	8929.86
540.12	8736.22
540.02	8487.03
539.92	8540.93
539.82	8957.39
539.72	8631.27
539.62	8807.06
539.52	8688
539.42	8733.11
539.32	8743.07
539.22	8431.32
539.12	8531.69
539.02	8738.4
538.92	8519.04
538.82	8681.08
538.72	8771.42
538.62	8839.53
538.52	8226.62
538.42	8716.92
538.32	8569.06
538.22	8716.49
538.12	9005.94
538.02	8768.97
537.92	8475.67
537.82	8335.84
537.72	8575.44
537.62	8426.93
537.52	8581.1
537.42	8657.92
537.32	8458.87
537.22	8741.72
537.12	8260.32
537.02	8300.81
536.92	8609.92
536.82	8912.18
536.72	8502.7
536.62	8810.59
536.52	8610.17
536.42	8395.93
536.32	8500.18
536.22	8557.17
536.12	8534.44
536.02	8766.08
535.92	8618.68
535.82	8842.85
535.72	8772.36
535.62	8656.62
535.52	8661.29
535.42	8807.44
535.32	8619.26
535.22	8456.09
535.12	8837.65
535.02	8804.38
534.92	8875.32
534.82	8914.96
534.72	8931.21
534.62	8762.31
534.52	9358.55
534.42	8980.13
534.32	8962.53
534.22	9258.63
534.12	9385.25
534.02	9441.65
533.92	9725
533.82	9927.02
533.72	10100
533.62	9892.52
533.52	10353.6
533.42	10408
533.32	10742.1
533.22	10745.3
533.12	10641.3
533.02	11552.2
532.92	11251.5
532.82	11454.6
532.72	11890.3
532.62	12044.7
532.52	12034.3
532.42	11919.6
532.32	11908.1
532.22	12126.9
532.12	12309.2
532.02	12199
531.92	12023.4
531.82	12073.7
531.72	11764.3
531.62	11976.4
531.52	11259.2
531.42	10654.6
531.32	10600.4
531.22	10435.8
531.12	10106.5
531.02	10279.5
530.92	10272.7
530.82	9539.05
530.72	9271.58
530.62	9499.56
530.52	9443.6
530.42	9303.46
530.32	9069.74
530.22	8897.58
530.12	8766.5
530.02	8969.58
529.92	8798.88
529.82	8710.97
529.72	8826.31
529.62	8529.13
529.52	8714.7
529.42	8633.79
529.32	8599.23
529.22	9005.99
529.12	8914.82
529.02	8767.95
528.92	8498.77
528.82	8542.11
528.72	8375.12
528.62	8565.77
528.52	8845.59
528.42	8573.53
528.32	8412.89
528.22	8514.27
528.12	8893.63
528.02	8477.58
527.92	8472.71
527.82	8610.32
527.72	8800.66
527.62	8730.27
527.52	8553.49
527.42	8538.3
527.32	8540.12
527.22	8539.77
527.12	8604.4
527.02	8455.01
526.92	8314.38
526.82	8327.4
526.72	8470.8
526.62	8589.19
526.52	8873.53
526.42	8662.24
526.32	8531.95
526.22	8598.59
526.12	8705.64
526.02	8669.37
525.92	8761.19
525.82	8504.12
525.72	8794.87
525.62	8498.89
525.52	8373.76
525.42	8268.62
525.32	8485.68
525.22	8565.88
525.12	8669.27
525.02	8559.98
524.92	8788.02
524.82	8769.98
524.72	8629.61
524.62	8419.73
524.52	8349.6
524.42	8443.29
524.32	8311.04
524.22	8603.8
524.12	8733.4
524.02	8427.61
523.92	8556.62
523.82	8655.07
523.72	8642.45
523.62	8788.47
523.52	8591.19
523.42	8403.93
523.32	8769.16
523.22	8365.74
523.12	8652.61
523.02	8580.95