File: Synthesis of barbituric acid doped carbon nitride for efficient solar-driven photocatalytic degradation of aniline/data/CN-BA-XPS/XPS/6#-Survey.txt
1349.97	59310.9
1344.97	57828.7
1339.97	57438.1
1334.97	57090.5
1329.97	57319.4
1324.97	56185.4
1319.97	55801
1314.97	56573.4
1309.97	56132
1304.97	56074.4
1299.97	56218.4
1294.97	56511.8
1289.97	56329
1284.97	57743.1
1279.97	57512.6
1274.97	58674.1
1269.97	57801.5
1264.97	58210.1
1259.97	58863.9
1254.97	60202.7
1249.97	60245.2
1244.97	60416.4
1239.97	62111.9
1234.97	63676.4
1229.97	64429.3
1224.97	65001.5
1219.97	64999.9
1214.97	59084.9
1209.97	55200.7
1204.97	52398.2
1199.97	52121
1194.97	52251.5
1189.97	51871.7
1184.97	53021.5
1179.97	52109.7
1174.97	53341.1
1169.97	53324.2
1164.97	53708.3
1159.97	54028.3
1154.97	55339.9
1149.97	55427.2
1144.97	56662.8
1139.97	57478.7
1134.97	57341.5
1129.97	57488.1
1124.97	60819
1119.97	59663.5
1114.97	57431.3
1109.97	57373.6
1104.97	65952.4
1099.97	55061.4
1094.97	39167.4
1089.97	31510.4
1084.97	31076.7
1079.97	31159.2
1074.97	30622.3
1069.97	30906
1064.97	31576.4
1059.97	31758.1
1054.97	32157.5
1049.97	31726.6
1044.97	32872.9
1039.97	32312.5
1034.97	32862.4
1029.97	32761.6
1024.97	33022.8
1019.97	33236.4
1014.97	34179.5
1009.97	33837.9
1004.97	34399
999.97	35102.4
994.97	35156.6
989.97	35143.7
984.97	34222.4
979.97	35958.2
974.97	37456.5
969.97	35926.3
964.97	34166.6
959.97	33349.7
954.97	33825.2
949.97	33797.3
944.97	34142.1
939.97	33659
934.97	34460.2
929.97	34486.7
924.97	34295.3
919.97	35572.6
914.97	35168.3
909.97	34581.6
904.97	35215.1
899.97	35642.8
894.97	35516.5
889.97	35370.6
884.97	36280.2
879.97	36164.2
874.97	36677.4
869.97	36963.4
864.97	36617.2
859.97	36968.4
854.97	37061.1
849.97	37246
844.97	37594.2
839.97	37943.9
834.97	38391.4
829.97	37947.4
824.97	38648.9
819.97	38406.5
814.97	38591.5
809.97	38233.9
804.97	39051.6
799.97	39842.4
794.97	39647.9
789.97	39688.8
784.97	39625.4
779.97	39980.5
774.97	39856.8
769.97	39170.9
764.97	39910.3
759.97	40448.4
754.97	40700.4
749.97	40813.4
744.97	40964.8
739.97	40948.7
734.97	41146.8
729.97	42397.3
724.97	41539.7
719.97	42590
714.97	42379.5
709.97	42251.7
704.97	42612.6
699.97	43388.7
694.97	43522.1
689.97	43521
684.97	43202.6
679.97	43932.2
674.97	43996.7
669.97	44297.6
664.97	44335.7
659.97	44637.5
654.97	44309.7
649.97	44905.3
644.97	44579.6
639.97	45346.3
634.97	45104
629.97	46137.3
624.97	45411.7
619.97	46173.3
614.97	46091.9
609.97	46948.2
604.97	47251.6
599.97	47226.2
594.97	47595
589.97	47774.3
584.97	47778.6
579.97	48012.3
574.97	48622.6
569.97	48686.7
564.97	49647.3
559.97	49253
554.97	50031
549.97	49514.6
544.97	49096.1
539.97	50075.4
534.97	50066.2
529.97	60384.2
524.97	49501.5
519.97	49263
514.97	50275.1
509.97	51309.7
504.97	50458.8
499.97	50716.7
494.97	51304.9
489.97	52297.8
484.97	51322.9
479.97	51617.3
474.97	52304.4
469.97	53035.9
464.97	53063
459.97	53685.3
454.97	53791.4
449.97	52296.7
444.97	52782.8
439.97	53898.8
434.97	54935.6
429.97	55013.6
424.97	56052.6
419.97	51380.8
414.97	44185.8
409.97	39624.1
404.97	43706.1
399.97	98633.1
394.97	23786.1
389.97	16805.4
384.97	16405.4
379.97	16751
374.97	16627.4
369.97	17152.4
364.97	16408.5
359.97	16789.3
354.97	17367.8
349.97	17755.7
344.97	17943.1
339.97	17072.9
334.97	17843.4
329.97	18617.7
324.97	17822.2
319.97	19264.7
314.97	19476.6
309.97	18691.4
304.97	14792.7
299.97	13460.5
294.97	12608.7
289.97	10831.8
284.97	26306.8
279.97	2293.52
274.97	1981.55
269.97	2136.97
264.97	2087.47
259.97	1903.97
254.97	2249.98
249.97	2096.97
244.97	2164.32
239.97	1994.27
234.97	2077.02
229.97	2271.43
224.97	2008.18
219.97	2074.31
214.97	2053.06
209.97	2265.8
204.97	2311.38
199.97	2207.1
194.97	2290.61
189.97	2106.72
184.97	2174.09
179.97	2257.81
174.97	2181.3
169.97	2341.65
164.97	2290.02
159.97	2149.23
154.97	2091.21
149.97	2305.25
144.97	2293.22
139.97	2401.38
134.97	2418.45
129.97	2258.53
124.97	2245.19
119.97	2511.96
114.97	2203.31
109.97	2302.22
104.97	2158.49
99.97	2384.3
94.97	2375.48
89.97	2344.91
84.97	2403.97
79.97	2558.76
74.97	2574.1
69.97	2450.64
64.97	2622.04
59.97	2532.15
54.97	2851.8
49.97	2753.91
44.97	2589.18
39.97	2355.54
34.97	2251.84
29.97	2442.88
24.97	4337.48
19.97	4690.87
14.97	2472.12
9.97	1336.27
4.97	2348.36
-0.03	58.3408
-5.03	8.52585
-10.03	4.84548