File: Synthesis of barbituric acid doped carbon nitride for efficient solar-driven photocatalytic degradation of aniline/data/CN-BA-XPS/XPS/6#-Valence.txt
41.02	387.011
40.82	394.506
40.62	416.158
40.42	406.835
40.22	376.595
40.02	372.465
39.82	360.792
39.62	403.954
39.42	384.53
39.22	344.314
39.02	386.823
38.82	362.577
38.62	397.735
38.42	343.902
38.22	365.85
38.02	386.283
37.82	361.933
37.62	358.547
37.42	383.609
37.22	408.776
37.02	363.229
36.82	372.845
36.62	406.218
36.42	406.579
36.22	379.352
36.02	335.75
35.82	384.09
35.62	352.757
35.42	410.3
35.22	379.572
35.02	358.055
34.82	355.298
34.62	375.366
34.42	354.594
34.22	347.131
34.02	359.016
33.82	364.15
33.62	364.618
33.42	350.808
33.22	338.683
33.02	370.272
32.82	333.169
32.62	382.897
32.42	379.4
32.22	361.945
32.02	389.644
31.82	394.642
31.62	413.661
31.42	366.511
31.22	393.005
31.02	380.476
30.82	397.435
30.62	417.343
30.42	439.416
30.22	442.313
30.02	391.585
29.82	433.385
29.62	467.511
29.42	392.745
29.22	461.309
29.02	488.527
28.82	480.88
28.62	504.958
28.42	517.991
28.22	545.83
28.02	572.093
27.82	511.757
27.62	624.258
27.42	640.792
27.22	613.485
27.02	609.736
26.82	689.804
26.62	672.605
26.42	696.046
26.22	666.663
26.02	742.901
25.82	770.86
25.62	766.022
25.42	750.676
25.22	801.248
25.02	759.884
24.82	818.375
24.62	785.81
24.42	781.417
24.22	829.012
24.02	804.594
23.82	808.407
23.62	810.124
23.42	776.323
23.22	855.602
23.02	828.956
22.82	840.732
22.62	778.083
22.42	829.32
22.22	821.353
22.02	817.371
21.82	757.035
21.62	759.692
21.42	748.475
21.22	756.975
21.02	691.581
20.82	720.108
20.62	664.458
20.42	691.685
20.22	599.932
20.02	570.156
19.82	529.856
19.62	509.252
19.42	398.944
19.22	415.386
19.02	331.725
18.82	348.375
18.62	312.273
18.42	314.462
18.22	328.743
18.02	305.922
17.82	309.764
17.62	323.725
17.42	345.13
17.22	342.521
17.02	400.436
16.82	365.462
16.62	388.94
16.42	445.926
16.22	439.128
16.02	468.735
15.82	441.553
15.62	422.449
15.42	378.395
15.22	366.299
15.02	320.26
14.82	327.011
14.62	300.704
14.42	302.105
14.22	303.99
14.02	348.439
13.82	337.751
13.62	352.913
13.42	331.068
13.22	329.656
13.02	292.233
12.82	252.405
12.62	239.88
12.42	285.558
12.22	220.26
12.02	238.267
11.82	239.112
11.62	188.78
11.42	209.5
11.22	196.887
11.02	221.12
10.82	205.674
10.62	205.926
10.42	227.631
10.22	192.525
10.02	176.635
9.82	191.525
9.62	185.054
9.42	196.186
9.22	188.96
9.02	147.419
8.82	155.726
8.62	151.369
8.42	134.446
8.22	124.298
8.02	92.397
7.82	146.739
7.62	143.754
7.42	180.48
7.22	250.356
7.02	298.88
6.82	378.567
6.62	456.739
6.42	480.416
6.22	443.866
6.02	454.262
5.82	410.624
5.62	328.707
5.42	299.008
5.22	242.833
5.02	227.263
4.82	258.824
4.62	319.872
4.42	287.395
4.22	272.981
4.02	301.561
3.82	243.701
3.62	217.803
3.42	168.183
3.22	146.082
3.02	118.299
2.82	91.5406
2.62	35.018
2.42	23.1413
2.22	15.3501
2.02	11.7367
1.82	4.77391
1.62	2.80912
1.42	2.52901
1.22	1.19248
1.02	0
0.82	1.94478
0.62	3.13725
0.42	0
0.22	0
0.02	0
-0.18	0
-0.38	0
-0.58	0.53221
-0.78	0
-0.98	0
-1.18	1.61665
-1.38	2.16887
-1.58	0
-1.78	0.37215
-1.98	1.60864
-2.18	0.37215
-2.38	0
-2.58	0
-2.78	0
-2.98	0
-3.18	0
-3.38	1.62865
-3.58	1.33653
-3.78	0.94438
-3.98	0