File: Synthesis of barbituric acid doped carbon nitride for efficient solar-driven photocatalytic degradation of aniline/data/CN-BA-XPS/XPS/6#-Valence.dat
B.E.(eV)           Raw Intensity       Peak Sum            Background          Peak 1              Peak 2              Peak 3              Peak 4              Peak 5              Peak 6              difference
 41.02              387.011             390.8696            387.011             387.03              387.0521            387.0466            387.0723            387.0933            390.6302           -3.858612
 40.07              407.411             390.8591            386.5828            386.6028            386.6263            386.6207            386.6486            386.6718            390.6031            16.55191
 39.12              395.118             391.9507            387.1853            387.2064            387.2313            387.2257            387.256             387.2817            391.6761            3.167358
 38.17              376.635             393.2325            387.8896            387.912             387.9384            387.9328            387.9659            387.9944            392.9373           -16.59753
 37.22              408.776             394.8735            388.8417            388.8653            388.8935            388.888             388.9241            388.9561            394.5551            13.90247
 36.27              373.089             396.3783            389.5143            389.5393            389.5694            389.564             389.6036            389.6396            396.0338           -23.28931
 35.32              406.735             398.5262            390.6368            390.6634            390.6956            390.6904            390.734             390.7747            398.1523            8.20874
 34.37              366.895             400.8138            391.6107            391.6389            391.6735            391.6685            391.7168            391.7632            400.4062           -33.91882
 33.42              350.808             403.7455            392.7242            392.7543            392.7914            392.7868            392.8406            392.8937            403.2995           -52.9375
 32.47              396.17              408.2287            394.3521            394.3843            394.4243            394.4203            394.4803            394.5417            407.7383           -12.05869
 31.52              382.233             413.7657            394.7371            394.7715            394.8148            394.8115            394.8791            394.9505            413.2238           -31.53268
 30.57              420.368             424.1838            395.0436            395.0806            395.1276            395.1251            395.2016            395.2856            423.5815           -3.815826
 29.62              467.511             442.1623            393.1587            393.1985            393.2496            393.2484            393.3356            393.4354            441.4884            25.34869
 28.67              447.195             474.8281            389.224             389.2669            389.3228            389.3231            389.4234            389.5435            474.0684           -27.63306
 27.72              532.357             527.9802            381.5654            381.6118            381.673             381.6755            381.7918            381.9384            527.1165            4.37677
 26.77              656.487             603.9299            368.645             368.6954            368.7628            368.7682            368.9044            369.0861            602.938             52.55707
 25.82              770.86              698.1964            351.1934            351.2483            351.3229            351.3319            351.4936            351.723             697.0436            72.66357
 24.87              812.001             791.5889            328.1808            328.2408            328.3239            328.3378            328.532             328.8284            790.2299            20.41205
 23.92              811.329             856.8518            302.8557            302.9217            303.0146            303.0352            303.2722            303.6654            855.2213           -45.52283
 22.97              827.075             860.704             275.4234            275.4962            275.6007            275.6306            275.9251            276.4641            858.7043           -33.62897
 22.02              817.371             788.9564            245.6849            245.7656            245.8842            245.9266            246.3008            247.0704            786.4334            28.41461
 21.07              722.521             664.2109            217.1852            217.2752            217.4108            217.4708            217.9588            219.1173            660.9043            58.31006
 20.12              559.524             522.931             191.8955            191.9965            192.1529            192.238             192.8953            194.7674            518.3585            36.59296
 19.17              431.845             400.8594            176.0626            176.1768            176.3591            176.4808            177.4031            180.9017            393.851             30.98563
 18.22              328.743             318.6722            167.107             167.237             167.4521            167.6288            168.9936            182.168             300.7276            10.07083
 17.27              334.754             327.1226            159.0278            159.1772            159.4346            159.6967            161.8913            245.6997            236.3618            7.631439
 16.32              429.128             441.789             146.771             146.9446            147.2577            147.6581            152.5471            390.3465            190.8898           -12.66101
 15.37              396.879             381.5436            131.1259            131.33              131.7184            132.3562            155.524             328.7528            157.4916            15.33536
 14.42              302.105             291.7789            120.2337            120.4771            120.9705            122.0675            220.2955            171.5052            137.6314            10.32608
 13.47              336.715             324.841             109.4338            109.729             110.3747            113.0113            297.8976            118.7523            122.245             11.87396
 12.52              273.79              256.1808            99.36296            99.72852            100.6055            112.8341            226.8763            103.3574            109.5938            17.60916
 11.57              202.705             194.4113            92.16464            92.62883            93.87976            144.8567            128.471             94.67559            100.7227            8.293686
 10.62              205.926             215.8362            85.5837             86.19237            88.09875            195.9247            93.30836            87.31197            92.91859           -9.910248
 9.67               215.262             191.9072            78.95122            79.78355            82.97643            176.1602            82.20604            80.21082            85.32622            23.35483
 8.72               127.419             129.1473            73.84926            75.05431            81.49262            111.6732            75.9224             74.80698            79.44408           -1.72831
 7.77               143.209             128.0505            71.04331            72.9369             110.1338            79.91372            72.49489            71.79557            75.99223            15.15846
 6.82               378.567             353.3832            62.37607            65.75926            341.1075            65.18358            63.44717            62.98232            66.78372            25.18375
 5.87               405.482             410.1841            41.76837            52.20631            392.8535            43.39063            42.59026            42.26723            45.71803           -4.702087
 4.92               249.24              211.6891            27.08867            140.6758            92.35789            28.20615            27.73878            27.50627            30.64751            37.55092
 3.97               317.247             282.0764            13.14795            267.6685            22.63454            13.96492            13.67481            13.5026             16.37074            35.17065
 3.02               118.299             61.76389            2.999237            52.9348             7.533743            3.621614            3.434724            3.304147            5.931044            56.53512
 2.07               22.421              12.84923            .4270172            6.286922            3.190779            .9164797            .7929299            .6919469            3.105259            9.571768
 1.12               0                   8.1286              .1944509            2.879571            2.048652            .5892431            .5061826            .4267673            2.650439           -8.1286
 .17                .94438              6.12883             .1538181            1.741719            1.481664            .478862             .4225442            .3591857            2.413945           -5.18445
-.78                0                   4.945592            .1279919            1.173016            1.124826            .4002011            .3620186            .3108367            2.214653           -4.945592
-1.73               0                   4.136332            8.925582E-02        .8278374            .8647227            .3205023            .2948838            .2530862            2.021579           -4.136332
-2.68               5.65026             3.551005            .0585494            .6077422            .6788165            .2574063            .2406435            .2061817            1.852961            2.099255
-3.63               0                   3.082085            1.102271E-02        .435176             .518337             .1838327            .1733983            .1447438            1.681711           -3.082085
-3.98               0                   2.939795            0                   .3886491            .4733592            .1644882            .1559106            .1290876            1.6283             -2.939795